Titanium Oxide (TiO2)	O2Ti1(l)
T(K)	Cp	S	-[G-H(Tr)]/T	H-H(Tr)	delta-f H	delta-f G	log Kf
0														
100														
200														
298.15	55.103	72.345	72.345	0.000	-894.055	-845.289	148.091
300	55.287	72.686	72.346	0.102	-894.054	-844.987	147.125
400	62.835	89.724	74.617	6.043	-893.698	-828.670	108.213
500	67.203	104.254	79.130	12.562	-892.978	-812.492	84.880
600	69.931	116.765	84.384	19.429	-892.097	-796.475	69.339
700	71.764	127.691	89.807	26.519	-891.149	-780.613	58.250
800	73.078	137.364	95.159	33.764	-890.166	-764.889	49.942
900	74.057	146.030	100.338	41.122	-889.204	-749.288	43.488
1000	74.852	153.875	105.306	48.569	-888.340	-733.789	38.329
1100	75.479	161.039	110.052	56.086	-887.647	-718.369	34.113
1200	76.023	167.630	114.579	63.662	-891.115	-702.884	30.596
1300	76.525	173.736	118.897	71.290	-890.050	-687.242	27.614
1400	76.944	179.423	123.020	78.964	-889.049	-671.679	25.061
1400.000	76.944	179.423	123.020	78.964	GLASS <--> LIQUID
1400.000	100.416	179.423	123.020	78.964	TRANSITION
1500	100.416	186.351	127.014	89.006	-885.798	-656.268	22.853
1600	100.416	192.832	130.927	99.047	-882.679	-641.068	20.929
1700	100.416	198.919	134.749	109.089	-879.701	-626.059	19.236
1800	100.416	204.659	138.475	119.131	-876.879	-611.221	17.737
1900	100.416	210.088	142.103	129.172	-874.225	-596.536	16.400
2000	100.416	215.239	145.632	139.214	-886.438	-581.532	15.188
2100	100.416	220.138	149.064	149.255	-884.906	-566.324	14.087
2130.000	100.416	221.563	150.075	152.268	CRYSTAL <--> LIQUID
2200	100.416	224.809	152.402	159.297	883.396  551.189 13.087
2300	100.416	229.273	155.648	169.339	-881.909	-536.122	12.176
2400	100.416	233.547	158.805	179.380	-880.444	-521.120	11.342
2500	100.416	237.646	161.877	189.422	-879.001	-506.177	10.576
2600	100.416	241.584	164.868	199.463	-877.579	-491.293	9.870
2700	100.416	245.374	167.780	209.505	-876.179	-476.462	9.218
2800	100.416	249.026	170.617	219.547	-874.799	-461.682	8.613
2900	100.416	252.550	173.381	229.588	-873.438	-446.953	8.050
3000	100.416	255.954	176.077	239.630	-872.098	-432.269	7.526
3100	100.416	259.247	178.707	249.671	-870.775	-417.630	7.037
3200	100.416	262.435	181.274	259.713	-869.471	-403.034	6.579
3300	100.416	265.525	183.781	269.755	-868.184	-388.478	6.149
3400	100.416	268.522	186.229	279.796	-866.914	-373.960	5.745
3500	100.416	271.433	188.622	289.838	-865.660	-359.480	5.365
3600	100.416	274.262	190.962	299.879	-864.422	-345.035	5.006
3700	100.416	277.013	193.251	309.921	-1272.296	-322.836	4.558
3800	100.416	279.691	195.491	319.963	-1269.853	-297.207	4.085
3900	100.416	282.300	197.683	330.004	-1267.478	-271.642	3.638
4000	100.416	284.842	199.830	340.046	-1265.171	-246.138	3.214
